# Time(ps) Perimeter(A)
0.0000 1872.9737
100.0000 1820.3647
200.0000 1812.9362
300.0000 1802.7886
400.0000 1803.7403
500.0000 1784.7209
600.0000 1777.0404
700.0000 1779.8486
800.0000 1774.4126
900.0000 1770.2244
1000.0000 1778.5309
1100.0000 1765.2404
1200.0000 1764.3281
1300.0000 1764.0476
1400.0000 1752.0083
1500.0000 1746.7425
1600.0000 1756.3178
1700.0000 1741.7859
1800.0000 1743.5666
1900.0000 1743.6722
2000.0000 1739.7846
2100.0000 1735.1310
2200.0000 1723.6453
2300.0000 1721.9528
2400.0000 1735.7857
2500.0000 1727.2756
2600.0000 1723.5157
2700.0000 1723.2231
2800.0000 1713.0687
2900.0000 1715.3173
3000.0000 1725.0680
3100.0000 1717.9958
3200.0000 1710.6533
3300.0000 1707.4870
3400.0000 1699.7225
3500.0000 1704.9413
3600.0000 1706.5578
3700.0000 1704.0580
3800.0000 1701.5381
3900.0000 1698.1129
4000.0000 1692.1998
4100.0000 1693.1071
4200.0000 1691.5690
4300.0000 1690.4089
4400.0000 1693.7324
4500.0000 1685.5639
4600.0000 1688.0195
4700.0000 1684.0194
4800.0000 1686.9270
4900.0000 1688.7654
5000.0000 1687.3103
5100.0000 1695.0201
5200.0000 1675.7971
5300.0000 1689.7067
5400.0000 1675.8741
5500.0000 1673.5603
5600.0000 1675.8047
5700.0000 1675.7230
5800.0000 1676.6194
5900.0000 1683.7296
6000.0000 1681.7918
6100.0000 1680.2972
6200.0000 1669.2872
6300.0000 1714.0404
6400.0000 1678.0365
6500.0000 1683.7331
6600.0000 1682.1066
6700.0000 1673.0044
6800.0000 1670.5602
6900.0000 1677.5141
7000.0000 1677.7601
7100.0000 1670.6807
7200.0000 1674.0962
7300.0000 1670.3599
7400.0000 1672.7605
7500.0000 1660.1092
7600.0000 1660.7250
7700.0000 1662.4339
7800.0000 1662.0253
7900.0000 1656.2072
8000.0000 1665.7711
8100.0000 1669.3899
8200.0000 1700.1302
8300.0000 1662.2640
8400.0000 1668.0138
8500.0000 1662.3813
8600.0000 1661.3525
8700.0000 1657.1168
8800.0000 1661.8569
8900.0000 1666.2057
9000.0000 1664.1743
9100.0000 1667.1213
9200.0000 1657.9964
9300.0000 1656.4380
9400.0000 1655.2298
9500.0000 1659.9337
9600.0000 1660.2152
9700.0000 1656.6521
9800.0000 1651.7918
9900.0000 1658.6573
10000.0000 1652.2332
10100.0000 1653.1201
10200.0000 1637.6309
10300.0000 1649.3290
10400.0000 1633.3174
10500.0000 1643.7840
10600.0000 1634.2456
10700.0000 1638.5696
10800.0000 1642.1738
10900.0000 1636.7821
11000.0000 1641.5507
11100.0000 1654.7993
11200.0000 1634.5579
11300.0000 1635.0564
11400.0000 1631.4154
11500.0000 1634.5971
11600.0000 1650.5568
11700.0000 1661.0356
11800.0000 1657.0942
11900.0000 1646.8535
12000.0000 1645.7404
12100.0000 1639.1816
12200.0000 1650.5185
12300.0000 1639.8336
12400.0000 1650.8621
12500.0000 1642.0511
12600.0000 1668.3797
12700.0000 1637.7465
12800.0000 1638.9732
12900.0000 1663.4010
13000.0000 1652.1166
13100.0000 1640.1625
13200.0000 1633.2265
13300.0000 1632.8230
13400.0000 1632.4837
13500.0000 1637.7136
13600.0000 1630.3617
13700.0000 1621.0348
13800.0000 1622.5670
13900.0000 1619.0249
14000.0000 1621.2042
14100.0000 1625.1015
14200.0000 1616.3275
14300.0000 1626.1034
14400.0000 1613.9468
14500.0000 1610.4354
14600.0000 1619.4568
14700.0000 1622.8650
14800.0000 1626.6492
14900.0000 1620.2987
15000.0000 1622.6276
15100.0000 1619.5776
15200.0000 1622.0460
15300.0000 1624.8458
15400.0000 1618.6032
15500.0000 1618.7652
15600.0000 1610.7607
15700.0000 1622.3598
15800.0000 1628.3330
15900.0000 1626.1573
16000.0000 1623.2569
16100.0000 1631.9459
16200.0000 1628.2553
16300.0000 1622.1905
16400.0000 1619.1348
16500.0000 1617.4546
16600.0000 1622.0450
16700.0000 1617.7968
16800.0000 1614.6879
16900.0000 1626.8038
17000.0000 1617.8494
17100.0000 1612.2104
17200.0000 1622.5512
17300.0000 1615.0719
17400.0000 1608.1998
17500.0000 1608.6282
17600.0000 1611.1986
17700.0000 1634.5221
17800.0000 1628.5423
17900.0000 1620.5851
18000.0000 1627.0946
18100.0000 1615.3044
18200.0000 1604.5742
18300.0000 1613.0084
18400.0000 1612.7669
18500.0000 1624.2238
18600.0000 1617.7530
18700.0000 1620.0416
18800.0000 1610.2808
18900.0000 1599.9422
19000.0000 1619.9418
19100.0000 1606.1008
19200.0000 1596.1191
19300.0000 1613.1967
19400.0000 1602.1640
19500.0000 1613.1951
19600.0000 1599.6296
19700.0000 1613.5633
19800.0000 1605.5551
19900.0000 1602.6358
20000.0000 1619.9167
20100.0000 1602.4598
20200.0000 1605.0255
20300.0000 1600.1438
20400.0000 1607.1614
20500.0000 1592.7059
20600.0000 1597.7185
20700.0000 1609.6041
20800.0000 1601.6516
20900.0000 1596.4847
21000.0000 1598.6431
21100.0000 1595.0734
21200.0000 1596.7143
21300.0000 1595.8125
21400.0000 1587.4532
21500.0000 1602.3425
21600.0000 1594.6988
21700.0000 1593.4837
21800.0000 1594.7618
21900.0000 1603.0033
22000.0000 1586.4909
22100.0000 1592.4399
22200.0000 1591.4673
22300.0000 1583.6839
22400.0000 1586.4553
22500.0000 1591.6633
22600.0000 1584.8865
22700.0000 1587.7699
22800.0000 1586.2152
22900.0000 1588.4689
23000.0000 1584.8300
23100.0000 1579.2356
23200.0000 1575.5668
23300.0000 1579.8424
23400.0000 1586.6076
23500.0000 1582.3721
23600.0000 1583.5002
23700.0000 1596.8210
23800.0000 1588.0651
23900.0000 1592.8186
24000.0000 1593.2435
24100.0000 1595.4519
24200.0000 1581.8984
24300.0000 1588.1241
24400.0000 1596.2751
24500.0000 1584.4799
24600.0000 1580.7267
24700.0000 1589.2068
24800.0000 1580.3228
24900.0000 1605.9513
25000.0000 1581.0874
25100.0000 1581.5959
25200.0000 1578.6792
25300.0000 1577.8777
25400.0000 1582.5397
25500.0000 1610.3283
25600.0000 1587.1029
25700.0000 1580.1665
25800.0000 1579.3877
25900.0000 1582.8226
26000.0000 1574.2774
26100.0000 1576.5214
26200.0000 1581.6357
26300.0000 1581.9464
26400.0000 1580.6456
26500.0000 1578.7959
26600.0000 1579.1562
26700.0000 1626.4052
26800.0000 1582.7940
26900.0000 1574.9057
27000.0000 1581.0232
27100.0000 1572.6229
27200.0000 1570.1236
27300.0000 1576.1408
27400.0000 1568.9917
27500.0000 1560.0843
27600.0000 1571.8877
27700.0000 1571.9381
27800.0000 1565.8309
27900.0000 1577.3436
28000.0000 1579.9705
28100.0000 1565.6520
28200.0000 1570.2623
28300.0000 1567.7037
28400.0000 1588.9724
28500.0000 1585.2710
28600.0000 1572.7626
28700.0000 1577.7611
28800.0000 1569.7478
28900.0000 1582.2556
29000.0000 1573.2032
29100.0000 1593.2745
29200.0000 1584.4451
29300.0000 1580.8497
29400.0000 1624.5079
29500.0000 1577.1742
29600.0000 1582.1285
29700.0000 1576.5498
29800.0000 1589.4260
29900.0000 1596.0077
30000.0000 1589.7478
30100.0000 1582.4729
30200.0000 1586.4044
30300.0000 1585.0252
30400.0000 1580.3068
30500.0000 1577.7917
30600.0000 1583.8148
30700.0000 1583.9547
30800.0000 1588.7433
30900.0000 1585.6747
31000.0000 1583.6145
31100.0000 1590.7212
31200.0000 1585.4079
31300.0000 1573.3758
31400.0000 1578.1221
31500.0000 1585.6074
31600.0000 1563.3207
31700.0000 1571.1666
31800.0000 1571.2878
31900.0000 1569.8312
32000.0000 1564.7173
32100.0000 1573.5940
32200.0000 1571.7302
32300.0000 1564.8950
32400.0000 1570.7753
32500.0000 1557.9855
32600.0000 1569.9429
32700.0000 1554.3310
32800.0000 1551.6447
32900.0000 1583.6127
33000.0000 1543.8767
33100.0000 1573.8160
33200.0000 1591.3249
33300.0000 1550.3547
33400.0000 1547.6810
33500.0000 1560.4038
33600.0000 1551.6139
33700.0000 1549.3572
33800.0000 1547.7068
33900.0000 1548.2224
34000.0000 1549.3163
34100.0000 1557.2180
34200.0000 1569.6661
34300.0000 1542.8945
34400.0000 1530.4117
34500.0000 1537.8964
34600.0000 1539.3047
34700.0000 1540.8269
34800.0000 1544.9034
34900.0000 1545.4592
35000.0000 1545.1476
35100.0000 1537.9754
35200.0000 1543.2242
35300.0000 1536.7387
35400.0000 1532.4248
35500.0000 1544.0484
35600.0000 1530.8523
35700.0000 1539.6474
35800.0000 1541.2122
35900.0000 1532.3018
36000.0000 1547.4166
36100.0000 1528.7473
36200.0000 1539.9636
36300.0000 1529.8727
36400.0000 1526.1891
36500.0000 1531.0511
36600.0000 1538.7418
36700.0000 1530.9860
36800.0000 1528.9294
36900.0000 1521.7315
37000.0000 1532.8166
37100.0000 1538.6875
37200.0000 1533.2454
37300.0000 1539.2647
37400.0000 1539.3618
37500.0000 1522.1983
37600.0000 1527.3709
37700.0000 1512.2238
37800.0000 1523.7751
37900.0000 1538.7675
38000.0000 1526.3446
38100.0000 1527.9458
38200.0000 1521.5978
38300.0000 1513.1735
38400.0000 1523.1513
38500.0000 1514.4931
38600.0000 1512.1115
38700.0000 1509.8220
38800.0000 1510.5072
38900.0000 1544.7336
39000.0000 1510.1563
39100.0000 1506.0949
39200.0000 1511.9215
39300.0000 1501.7824
39400.0000 1503.7375
39500.0000 1501.2934
39600.0000 1500.7261
39700.0000 1500.4087
39800.0000 1503.6371
39900.0000 1492.6863
40000.0000 1495.7019
40100.0000 1495.9822
40200.0000 1504.5795
40300.0000 1494.4939
40400.0000 1506.9828
40500.0000 1507.7600
40600.0000 1494.8428
40700.0000 1495.6241
40800.0000 1501.9664
40900.0000 1498.3923
41000.0000 1485.5376
41100.0000 1503.1840
41200.0000 1490.4014
41300.0000 1486.4502
41400.0000 1486.4410
41500.0000 1490.2823
41600.0000 1488.0673
41700.0000 1490.2265
41800.0000 1484.3480
41900.0000 1486.1419
42000.0000 1487.2376
42100.0000 1479.0796
42200.0000 1487.9807
42300.0000 1493.0986
42400.0000 1479.7272
42500.0000 1475.6416
42600.0000 1477.5095
42700.0000 1487.8185
42800.0000 1481.8304
42900.0000 1476.2323
43000.0000 1478.9098
43100.0000 1475.3658
43200.0000 1470.9550
43300.0000 1468.7325
43400.0000 1468.2861
43500.0000 1476.3740
43600.0000 1460.8608
43700.0000 1459.4601
43800.0000 1498.2900
43900.0000 1465.1626
44000.0000 1462.2175
44100.0000 1455.0092
44200.0000 1451.9278
44300.0000 1460.9640
44400.0000 1445.4477
44500.0000 1449.7815
44600.0000 1444.0238
44700.0000 1445.6111
44800.0000 1441.0284
44900.0000 1441.6793
45000.0000 1436.5732
45100.0000 1429.3833
45200.0000 1427.9808
45300.0000 1424.8249
45400.0000 1427.7649
45500.0000 1420.7480
45600.0000 1447.2509
45700.0000 1424.7352
45800.0000 1422.6663
45900.0000 1422.5248
46000.0000 1421.0569
46100.0000 1424.7482
46200.0000 1419.3541
46300.0000 1417.5329
46400.0000 1407.8564
46500.0000 1416.1264
46600.0000 1403.8347
46700.0000 1422.1569
46800.0000 1402.2682
46900.0000 1392.6451
47000.0000 1389.3515
47100.0000 1381.4381
47200.0000 1380.1694
47300.0000 1390.9620
47400.0000 1395.7806
47500.0000 1389.6546
47600.0000 1387.0745
47700.0000 1392.4840
47800.0000 1377.0183
47900.0000 1387.9458
48000.0000 1382.4015
48100.0000 1373.5312
48200.0000 1374.8346
48300.0000 1376.9093
48400.0000 1379.5948
48500.0000 1374.4071
48600.0000 1369.5083
48700.0000 1368.9100
48800.0000 1372.3021
48900.0000 1361.5140
49000.0000 1355.0022
49100.0000 1349.5328
49200.0000 1355.1897
49300.0000 1354.3985
49400.0000 1350.1430
49500.0000 1346.0976
49600.0000 1345.4548
49700.0000 1342.0430
49800.0000 1335.5315
49900.0000 1329.5167
50000.0000 1330.4689
50100.0000 1325.6990
50200.0000 1313.4456
50300.0000 1306.0135
50400.0000 1315.1794
50500.0000 1306.2603
50600.0000 1312.9925
50700.0000 1324.3999
50800.0000 1319.5099
50900.0000 1305.4455
51000.0000 1306.8784
51100.0000 1314.8589
51200.0000 1306.2396
51300.0000 1305.5885
51400.0000 1315.0356
51500.0000 1306.9167
51600.0000 1307.7810
51700.0000 1308.5797
51800.0000 1305.5566
51900.0000 1307.5114
52000.0000 1300.2187
52100.0000 1299.4495
52200.0000 1296.1362
52300.0000 1288.8421
52400.0000 1295.4661
52500.0000 1284.1790
52600.0000 1286.5128
52700.0000 1277.6762
52800.0000 1269.0286
52900.0000 1278.0760
53000.0000 1271.9030
53100.0000 1283.1300
53200.0000 1270.2116
53300.0000 1264.6610
53400.0000 1255.0599
53500.0000 1260.6673
53600.0000 1258.4614
53700.0000 1248.0326
53800.0000 1253.0732
53900.0000 1249.6536
54000.0000 1250.5601
54100.0000 1255.0985
54200.0000 1241.4105
54300.0000 1252.8735
54400.0000 1252.0690
54500.0000 1248.2550
54600.0000 1242.0675
54700.0000 1234.3052
54800.0000 1236.7098
54900.0000 1224.2059
55000.0000 1226.3874
55100.0000 1227.8374
55200.0000 1228.6701
55300.0000 1224.9233
55400.0000 1235.8021
55500.0000 1224.5160
55600.0000 1223.4742
55700.0000 1213.4046
55800.0000 1213.2299
55900.0000 1212.0375
56000.0000 1208.2332
56100.0000 1198.8047
56200.0000 1198.5680
56300.0000 1188.4212
56400.0000 1189.7560
56500.0000 1196.7323
56600.0000 1190.4788
56700.0000 1179.6255
56800.0000 1183.1433
56900.0000 1190.0060
57000.0000 1180.1304
57100.0000 1176.9790
57200.0000 1171.9216
57300.0000 1164.0613
57400.0000 1145.0904
57500.0000 1136.2652
57600.0000 1143.7345
57700.0000 1145.6977
57800.0000 1153.8512
57900.0000 1158.9289
58000.0000 1153.3246
58100.0000 1140.2738
58200.0000 1144.2019
58300.0000 1134.1467
58400.0000 1123.2484
58500.0000 1128.5901
58600.0000 1133.7953
58700.0000 1141.0902
58800.0000 1128.4133
58900.0000 1128.5870
59000.0000 1117.9701
59100.0000 1128.8901
59200.0000 1131.5729
59300.0000 1122.4271
59400.0000 1119.9791
59500.0000 1110.1145
59600.0000 1111.8716
59700.0000 1115.4772
59800.0000 1110.6272
59900.0000 1116.0416
60000.0000 1100.3721
60100.0000 1108.3014
60200.0000 1100.4985
60300.0000 1098.5290
60400.0000 1096.0574
60500.0000 1091.4832
60600.0000 1096.1209
60700.0000 1089.6951
60800.0000 1088.7049
60900.0000 1091.1474
61000.0000 1095.2712
61100.0000 1088.2310
61200.0000 1089.9908
61300.0000 1085.5025
61400.0000 1087.1578
61500.0000 1079.2155
61600.0000 1076.2182
61700.0000 1076.8558
61800.0000 1073.0319
61900.0000 1074.8074
62000.0000 1072.0101
62100.0000 1070.8174
62200.0000 1065.5953
62300.0000 1059.1101
62400.0000 1054.6441
62500.0000 1048.8058
62600.0000 1049.2979
62700.0000 1049.3912
62800.0000 1047.9299
62900.0000 1042.9567
63000.0000 1045.1264
63100.0000 1033.6062
63200.0000 1038.7041
63300.0000 1038.3675
63400.0000 1025.9188
63500.0000 1024.4124
63600.0000 1024.9779
63700.0000 1025.2760
63800.0000 1027.5184
63900.0000 1025.4253
64000.0000 1020.3220
64100.0000 1010.1529
64200.0000 1020.3168
64300.0000 1005.4841
64400.0000 996.1792
64500.0000 994.7467
64600.0000 983.8747
64700.0000 987.2087
64800.0000 987.6757
64900.0000 983.2107
65000.0000 975.4071
65100.0000 965.2060
65200.0000 966.4053
65300.0000 967.1176
65400.0000 961.7925
65500.0000 964.5753
65600.0000 953.6655
65700.0000 960.6817
65800.0000 959.0123
65900.0000 957.5464
66000.0000 959.9577
66100.0000 957.2154
66200.0000 952.6171
66300.0000 936.6287
66400.0000 940.6061
66500.0000 974.6115
66600.0000 985.2081
66700.0000 930.8293
66800.0000 935.9190
66900.0000 928.3891
67000.0000 933.1928
67100.0000 925.7448
67200.0000 916.0559
67300.0000 909.1111
67400.0000 913.7182
67500.0000 904.9937
67600.0000 904.0786
67700.0000 901.7856
67800.0000 902.9647
67900.0000 902.5711
68000.0000 911.6619
68100.0000 898.8701
68200.0000 896.3419
68300.0000 898.2070
68400.0000 898.9628
68500.0000 882.3471
68600.0000 872.5162
68700.0000 873.1978
68800.0000 867.7900
68900.0000 871.5445
69000.0000 866.6779
69100.0000 866.3258
69200.0000 861.4860
69300.0000 866.6140
69400.0000 871.8502
69500.0000 855.4746
69600.0000 855.1218
69700.0000 851.3055
69800.0000 844.3357
69900.0000 833.3037
70000.0000 837.9100
70100.0000 836.4121
70200.0000 818.8178
70300.0000 828.8438
70400.0000 851.5016
70500.0000 830.3681
70600.0000 827.3100
70700.0000 826.8753
70800.0000 814.4898
70900.0000 816.1864
71000.0000 817.4842
71100.0000 813.2081
71200.0000 807.3633
71300.0000 806.7716
71400.0000 796.3039
71500.0000 806.3264
71600.0000 793.7150
71700.0000 793.3838
71800.0000 827.2115
71900.0000 796.6581
72000.0000 794.6382
72100.0000 839.1328
72200.0000 778.0621
72300.0000 782.9830
72400.0000 780.7718
72500.0000 773.1868
72600.0000 781.0034
72700.0000 777.6893
72800.0000 784.9816
72900.0000 780.2714
73000.0000 768.9455
73100.0000 769.5743
73200.0000 758.8578
73300.0000 755.3995
73400.0000 755.8014
73500.0000 777.7293
73600.0000 744.0902
73700.0000 747.5096
73800.0000 745.6186
73900.0000 734.3645
74000.0000 741.6483
74100.0000 745.7839
74200.0000 735.0412
74300.0000 740.9925
74400.0000 733.7814
74500.0000 724.5385
74600.0000 717.9895
74700.0000 714.3509
74800.0000 711.4794
74900.0000 692.1415
75000.0000 697.8540
75100.0000 699.8045
75200.0000 703.2325
75300.0000 708.0898
75400.0000 693.5333
75500.0000 694.4918
75600.0000 681.0868
75700.0000 683.0695
75800.0000 687.6344
75900.0000 681.3457
76000.0000 687.2027
76100.0000 677.9994
76200.0000 681.7800
76300.0000 675.5476
76400.0000 678.1419
76500.0000 670.6084
76600.0000 666.4870
76700.0000 664.3582
76800.0000 671.3501
76900.0000 661.7754
77000.0000 658.1369
77100.0000 647.8204
77200.0000 643.6343
77300.0000 642.3673
77400.0000 630.0502
77500.0000 630.4453
77600.0000 627.9324
77700.0000 656.6593
77800.0000 619.3668
77900.0000 621.3848
78000.0000 614.1302
78100.0000 609.5619
78200.0000 601.0154
78300.0000 600.7456
78400.0000 615.3101
78500.0000 594.7212
78600.0000 590.1942
78700.0000 584.8986
78800.0000 586.5030
78900.0000 586.9308
79000.0000 580.2505
79100.0000 576.3196
79200.0000 571.5907
79300.0000 572.4025
79400.0000 575.4489
79500.0000 568.9189
79600.0000 567.4480
79700.0000 558.2944
79800.0000 591.0419
79900.0000 550.5110
80000.0000 557.0273
80100.0000 551.8073
80200.0000 544.5546
80300.0000 545.9376
80400.0000 540.5126
80500.0000 544.2252
80600.0000 535.8110
80700.0000 531.2964
80800.0000 521.3332
80900.0000 526.9140
81000.0000 519.7874
81100.0000 522.0449
81200.0000 528.7255
81300.0000 543.8777
81400.0000 513.4231
81500.0000 540.5529
81600.0000 514.6818
81700.0000 518.3706
81800.0000 518.6999
81900.0000 517.6006
82000.0000 509.2920
82100.0000 507.6493
82200.0000 507.6769
82300.0000 507.8605
82400.0000 508.4487
82500.0000 506.8485
82600.0000 511.6038
82700.0000 506.9984
82800.0000 502.1420
82900.0000 505.6717
83000.0000 494.7540
83100.0000 491.8923
83200.0000 489.4226
83300.0000 496.4404
83400.0000 492.9537
83500.0000 496.8315
83600.0000 497.1126
83700.0000 498.8123
83800.0000 502.1623
83900.0000 495.7491
84000.0000 492.6302
84100.0000 494.5067
84200.0000 492.8400
84300.0000 484.5875
84400.0000 478.5944
84500.0000 474.8261
84600.0000 470.6970
84700.0000 477.4610
84800.0000 468.8803
84900.0000 470.8922
85000.0000 464.4268
85100.0000 464.8033
85200.0000 461.5771
85300.0000 466.9672
85400.0000 461.1977
85500.0000 459.6241
85600.0000 460.2422
85700.0000 451.2186
85800.0000 449.6124
85900.0000 442.0844
86000.0000 438.8274
86100.0000 429.7958
86200.0000 426.1375
86300.0000 436.0876
86400.0000 427.2415
86500.0000 421.9780
86600.0000 418.7596
86700.0000 418.9950
86800.0000 421.8312
86900.0000 414.1289
87000.0000 415.4230
87100.0000 414.1629
87200.0000 408.6015
87300.0000 412.1160
87400.0000 402.8183
87500.0000 403.6842
87600.0000 402.5784
87700.0000 397.8616
87800.0000 388.7119
87900.0000 387.1461
88000.0000 391.3872
88100.0000 385.9131
88200.0000 383.8078
88300.0000 376.7592
88400.0000 384.1073
88500.0000 376.9601
88600.0000 376.0286
88700.0000 369.7776
88800.0000 372.1015
88900.0000 364.8936
89000.0000 370.3321
89100.0000 359.2607
89200.0000 404.3353
89300.0000 355.7565
89400.0000 360.8527
89500.0000 351.5232
89600.0000 348.9327
89700.0000 345.9547
89800.0000 344.8620
89900.0000 341.9150
90000.0000 331.3985
90100.0000 328.4614
90200.0000 323.2573
90300.0000 327.5799
90400.0000 323.7992
90500.0000 317.9791
90600.0000 308.4676
90700.0000 305.9115
90800.0000 306.1409
90900.0000 338.8585
91000.0000 307.4746
91100.0000 294.5033
91200.0000 293.4634
91300.0000 294.0498
91400.0000 295.0716
91500.0000 301.3361
91600.0000 342.7223
91700.0000 284.8501
91800.0000 303.9699
91900.0000 296.3511
92000.0000 282.0160
92100.0000 272.2802
92200.0000 300.8393
92300.0000 271.3970
92400.0000 276.2283
